T (C)	Fraction solid (wt)-TOTAL	Fraction liquid (wt)-LIQUID	Density (g/(cm)^3)-TOTAL	Molar volume (cm^3)-TOTAL	Volume change (%)-  	Average expansion coeff. (10e-6 1/K)-  	Thermal conductivity (W/(m*K))-TOTAL	Electrical resistivity (10e-6 Ohm*m)-TOTAL	Electrical conductivity (10e6 1/(Ohm*m))-TOTAL	Young's modulus (GPa)-TOTAL	Bulk modulus (GPa)-TOTAL	Shear modulus(GPa)-TOTAL	Poisson's ratio-TOTAL	Liquid viscosity (mPa s)-  	Total viscosity (mPa s)-  	Liquid diffusivity (10e-9 (m^2)/s)-  	Total diffusivity (10e-9 (m^2)/s)-  	Surface Tension (mN/m)-  	Enthalpy (J/g)-TOTAL	Specific heat (J/(g K))-TOTAL	Latent heat (J/g)-TOTAL
1650.0	0.0	1.0	6.90255	8.05654	0.0	28.20993	36.24893	1.29982	0.76934	0.0	96.96991	0.0	0.49978	5.41515	5.41515	1.73336	1.73336	1778.62067	1392.1	 	0.0
1645.0	0.0	1.0	6.90669	8.05172	-0.0598824	28.15684	36.15607	1.29977	0.76937	0.0	97.14687	0.0	0.49978	5.45397	5.45397	1.71655	1.71655	1780.8992	1387.973	0.8254	0.0
1640.0	0.0	1.0	6.91082	8.04691	-0.11961	28.10379	36.06321	1.29972	0.76939	0.0	97.32383	0.0	0.49978	5.49328	5.49328	1.69982	1.69982	1783.17612	1383.847	0.8252	0.0
1635.0	0.0	1.0	6.91494	8.04211	-0.17918	28.05077	35.97035	1.29967	0.76942	0.0	97.50079	0.0	0.49978	5.53307	5.53307	1.68319	1.68319	1785.45142	1379.72	0.8254	0.0
1630.0	0.0	1.0	6.91906	8.03732	-0.2386	27.99778	35.87749	1.29962	0.76945	0.0	97.67775	0.0	0.49978	5.57337	5.57337	1.66664	1.66664	1787.72507	1375.593	0.8254	0.0
1625.0	0.0	1.0	6.92318	8.03254	-0.29786	27.94484	35.78463	1.29957	0.76948	0.0	97.85472	0.0	0.49978	5.61417	5.61417	1.65018	1.65018	1789.99706	1371.467	0.8252	0.0
1620.0	0.0	1.0	6.92728	8.02778	-0.35696	27.89193	35.69177	1.29952	0.76951	0.0	98.03168	0.0	0.49978	5.65549	5.65549	1.63381	1.63381	1792.26735	1367.34	0.8254	0.0
1615.0	0.0	1.0	6.93138	8.02303	-0.41591	27.83906	35.59891	1.29947	0.76955	0.0	98.20864	0.0	0.49978	5.69733	5.69733	1.61753	1.61753	1794.53592	1363.214	0.8252	0.0
1610.0	0.0	1.0	6.93548	8.0183	-0.47471	27.78623	35.50605	1.29942	0.76958	0.0	98.3856	0.0	0.49978	5.73971	5.73971	1.60133	1.60133	1796.80274	1359.087	0.8254	0.0
1605.0	0.0	1.0	6.93957	8.01357	-0.53335	27.73343	35.41319	1.29937	0.76961	0.0	98.56256	0.0	0.49978	5.78263	5.78263	1.58523	1.58523	1799.0678	1354.961	0.8252	0.0
1600.0	0.0	1.0	6.94365	8.00886	-0.59183	27.68068	35.32033	1.29931	0.76964	0.0	98.73952	0.0	0.49978	5.82611	5.82611	1.56921	1.56921	1801.33106	1350.834	0.8254	0.0
1595.0	0.0	1.0	6.94773	8.00416	-0.65016	27.62796	35.22747	1.29926	0.76967	0.0	98.91649	0.0	0.49978	5.87015	5.87015	1.55328	1.55328	1803.5925	1346.707	0.8254	0.0
1590.0	0.0	1.0	6.9518	7.99947	-0.70833	27.57529	35.13461	1.29921	0.7697	0.0	99.09345	0.0	0.49978	5.91476	5.91476	1.53744	1.53744	1805.8521	1342.581	0.8252	0.0
1585.0	0.0	1.0	6.95586	7.9948	-0.76635	27.52265	35.04175	1.29916	0.76973	0.0	99.27041	0.0	0.49978	5.95995	5.95995	1.52169	1.52169	1808.10982	1338.455	0.8252	0.0
1580.0	0.0	1.0	6.95992	7.99014	-0.82421	27.47006	34.9489	1.2991	0.76976	0.0	99.44737	0.0	0.49978	6.00573	6.00573	1.50602	1.50602	1810.36563	1334.328	0.8254	0.0
1575.0	0.0	1.0	6.96397	7.98549	-0.88192	27.4175	34.85604	1.29905	0.76979	0.0	99.62433	0.0	0.49978	6.05212	6.05212	1.49045	1.49045	1812.61952	1330.202	0.8252	0.0
1570.0	0.0	1.0	6.96802	7.98085	-0.93947	27.36499	34.76318	1.29899	0.76983	0.0	99.80129	0.0	0.49978	6.09911	6.09911	1.47496	1.47496	1814.87145	1326.075	0.8254	0.0
1565.0	0.0	1.0	6.97206	7.97623	-0.99687	27.31252	34.67032	1.29894	0.76986	0.0	99.97826	0.0	0.49978	6.14674	6.14674	1.45956	1.45956	1817.12139	1321.949	0.8252	0.0
1560.0	0.0	1.0	6.97609	7.97162	-1.05411	27.26009	34.57746	1.29889	0.76989	0.0	100.15522	0.0	0.49978	6.19499	6.19499	1.44426	1.44426	1819.36931	1317.823	0.8252	0.0
1555.0	0.0	1.0	6.98012	7.96702	-1.11119	27.2077	34.4846	1.29883	0.76992	0.0	100.33218	0.0	0.49978	6.24389	6.24389	1.42904	1.42904	1821.61518	1313.696	0.8254	0.0
1550.0	0.0	1.0	6.98414	7.96243	-1.16812	27.15536	34.39174	1.29878	0.76996	0.0	100.50914	0.0	0.49978	6.29345	6.29345	1.4139	1.4139	1823.85898	1309.57	0.8252	0.0
1545.0	0.0	1.0	6.98815	7.95786	-1.2249	27.10306	34.29888	1.29872	0.76999	0.0	100.6861	0.0	0.49978	6.34368	6.34368	1.39886	1.39886	1826.10066	1305.444	0.8252	0.0
1540.0	0.0	1.0	6.99216	7.9533	-1.28152	27.0508	34.20602	1.29867	0.77002	0.0	100.86306	0.0	0.49978	6.39459	6.39459	1.38391	1.38391	1828.34021	1301.317	0.8254	0.0
1535.0	0.0	1.0	6.99616	7.94875	-1.33798	26.99859	34.11316	1.29861	0.77005	0.0	101.04003	0.0	0.49978	6.4462	6.4462	1.36904	1.36904	1830.57943	1297.208	0.8218	0.0
1530.0	0.0	1.0	7.00016	7.94421	-1.39429	26.94642	34.0203	1.29855	0.77009	0.0	101.21699	0.0	0.49978	6.49851	6.49851	1.35427	1.35427	1832.8146	1293.095	0.8226	0.0
1525.97	0.0	1.0	7.00337	7.94057	-1.43953	26.90443	33.94551	1.29851	0.77011	0.0	101.35951	0.0	0.49978	6.54116	6.54116	1.34243	1.34243	1834.61323	1289.792	0.8202	0.0
1525.0	0.10167	0.89833	7.02867	7.912	-1.79414	26.02549	34.12254	1.29107	0.77455	0.0028151	94.68853	9.47825E-4	0.48503	6.53791	7.63102	1.34237	1.15009	1833.6462	1263.684	26.835	24.861
1520.0	0.4338	0.5662	7.11351	7.81776	-2.96378	23.14599	34.67991	1.26679	0.7894	0.99129	72.7255	0.34516	0.43598	6.52228	70.82866	1.34185	0.12356	1829.5914	1177.634	17.21	105.54
1515.0	0.60759	0.39241	7.1605	7.76747	-3.58806	21.63499	34.94054	1.25383	0.79755	3.96436	61.23409	1.40608	0.40972	6.50809	252.60795	1.34103	0.0345496	1826.21538	1131.658	9.1952	146.98
1510.0	0.7143	0.2857	7.19121	7.73561	-3.9835	20.69813	35.06944	1.24573	0.80274	7.79528	54.27796	2.79736	0.39333	6.49497	491.29264	1.33998	0.0177147	1823.28868	1102.632	5.8052	171.822
1505.0	0.78627	0.21373	7.21341	7.71333	-4.26002	20.05961	35.12849	1.24015	0.80635	11.72243	49.70379	4.24075	0.38212	6.48282	745.70947	1.33872	0.0116382	1820.68261	1082.342	4.058	188.107
1500.0	0.83798	0.16202	7.23058	7.69667	-4.46688	19.59584	35.14644	1.23603	0.80904	15.44599	46.53333	5.621	0.37395	6.4721	999.65896	1.33717	0.00865726	1818.31388	1067.114	3.0456	199.433
1495.0	0.87694	0.12306	7.2446	7.68348	-4.63054	19.24035	35.13835	1.23283	0.81114	18.88593	44.25261	6.90417	0.36772	6.46219	1248.67222	1.33545	0.00691126	1816.13442	1055.053	2.4122	207.657
1490.0	0.9072	0.0927967	7.25643	7.67272	-4.76408	18.96038	35.11277	1.23024	0.81285	22.02434	42.58424	8.0805	0.36281	6.45332	1491.47808	1.3335	0.00576978	1814.10225	1045.133	1.984	213.784
1487.94	0.94626	0.0537373	7.27149	7.66103	-4.90925	18.61086	35.14714	1.2276	0.8146	26.41946	40.12482	9.73754	0.35658	6.45008	1797.07933	1.33261	0.004783	1813.29346	1035.769	 	222.098
1487.94	0.94626	0.0537373	7.27149	7.66103	-4.90925	18.61086	35.14714	1.2276	0.8146	26.41946	40.12482	9.73754	0.35658	6.45008	1797.07933	1.33261	0.004783	1813.29347	1035.769	 	222.098
1485.0	0.95213	0.0478658	7.27465	7.6578	-4.94934	18.54419	35.10935	1.22687	0.81508	27.38971	40.11713	10.1014	0.35574	6.43695	1895.40142	1.3331	0.00452732	1811.5284	1032.141	2.5984	223.392
1480.0	0.96041	0.0395949	7.27956	7.6528	-5.01131	18.44641	35.04217	1.22573	0.81584	28.87199	40.18826	10.65769	0.35451	6.41585	2058.2613	1.33368	0.00415724	1808.64972	1026.422	1.1438	225.151
1475.0	0.96705	0.0329526	7.28406	7.64829	-5.06733	18.36354	34.97248	1.22467	0.81655	30.18836	40.33953	11.15205	0.35349	6.39619	2218.29462	1.33396	0.00384633	1805.88112	1021.138	1.0568	226.493
1470.0	0.9725	0.0275001	7.28826	7.64412	-5.11908	18.29127	34.90106	1.22366	0.81722	31.38025	40.55047	11.59991	0.35261	6.37781	2377.98331	1.33398	0.00357777	1803.20079	1016.171	0.9934	227.532
1465.0	0.97706	0.02294	7.29224	7.64021	-5.16763	18.22695	34.82846	1.2227	0.81786	32.47706	40.80731	12.01222	0.35183	6.36066	2539.2159	1.33374	0.00334098	1800.58783	1011.444	0.9454	228.346
1460.0	0.98093	0.0190689	7.29604	7.6365	-5.21372	18.16867	34.75505	1.22176	0.81849	33.49998	41.10068	12.39689	0.35114	6.34488	2703.46956	1.33321	0.00312897	1798.02669	1006.901	0.9086	228.987
1455.0	0.98426	0.0157387	7.29971	7.63293	-5.25794	18.11494	34.68107	1.22083	0.81912	34.4649	41.42366	12.75986	0.35052	6.32992	2871.97579	1.33251	0.00293689	1795.50998	1002.505	0.8792	229.495
1450.0	0.98716	0.0128425	7.30328	7.62949	-5.30062	18.06494	34.60675	1.21991	0.81973	35.38373	41.77133	13.10558	0.34995	6.3162	3045.79529	1.33154	0.00276127	1793.02021	998.226	0.8558	229.896
1445.0	0.9897	0.0102979	7.30677	7.62615	-5.34209	18.01781	34.53222	1.219	0.82035	36.26564	42.13994	13.43749	0.34942	6.3037	3225.86445	1.33031	0.00259957	1790.55234	994.044	0.8364	230.212
1440.0	0.99196	0.0080443	7.31018	7.62289	-5.38259	17.97295	34.45759	1.21808	0.82096	37.11767	42.52659	13.75821	0.34893	6.2918	3413.04156	1.32895	0.00244986	1788.10688	989.941	0.8206	230.46
1435.0	0.99397	0.0060332	7.31355	7.6197	-5.42224	17.93005	34.38299	1.21716	0.82158	37.94559	42.92908	14.06993	0.34846	6.28123	3608.17082	1.3273	0.0023106	1785.66328	985.904	0.8074	230.651
1430.0	0.99577	0.00422546	7.31686	7.61656	-5.46123	17.88866	34.30846	1.21624	0.82221	38.75387	43.34557	14.37431	0.34803	6.27148	3812.04413	1.32547	0.00218063	1783.22671	981.925	0.7958	230.795
1426.76	0.99698	0.00302357	7.31907	7.61449	-5.48688	17.86067	34.26037	1.21562	0.82262	39.29336	43.61858	14.57755	0.34774	6.26541	3951.57337	1.32423	0.00209963	1781.64815	979.351	 	230.894
1425.0	0.99781	0.00219188	7.32037	7.6133	-5.50159	17.84323	34.23451	1.21528	0.82285	39.6231	43.76204	14.70185	0.34755	6.26288	4032.68085	1.32339	0.00205527	1781.57843	977.919	0.8012	230.994
1420.0	1.0	0.0	7.32399	7.61001	-5.5425	17.79597	34.16093	1.21432	0.82351	40.54218	44.18114	15.04839	0.34706	 	4270.12783	 	0.00193527	 	973.894	0.805	231.235
1415.0	1.0	0.0	7.32631	7.6076	-5.57241	17.77841	34.08534	1.21342	0.82412	41.04754	44.67218	15.23827	0.34686	 	4479.64204	 	0.00183931	 	969.031	0.9726	 
1410.0	1.0	0.0	7.32863	7.60519	-5.60227	17.76085	34.0102	1.21249	0.82475	41.5583	45.16778	15.43023	0.34665	 	4700.79269	 	0.00174759	 	965.414	0.7234	 
1405.0	1.0	0.0	7.33094	7.60279	-5.63208	17.74329	33.93552	1.21155	0.82539	42.0744	45.66787	15.62422	0.34645	 	4934.2981	 	0.00165994	 	961.8	0.7228	 
1400.0	1.0	0.0	7.33325	7.60039	-5.66184	17.72573	33.86133	1.21059	0.82604	42.5958	46.17237	15.82024	0.34624	 	5180.92528	 	0.00157621	 	958.189	0.7222	 
1395.0	1.0	0.0	7.33557	7.598	-5.69156	17.70817	33.78763	1.2096	0.82672	43.12244	46.6812	16.01827	0.34604	 	5441.49343	 	0.00149625	 	954.58	0.7218	 
1390.0	1.0	0.0	7.33787	7.59561	-5.72123	17.69062	33.71443	1.2086	0.82741	43.65426	47.19428	16.21828	0.34583	 	5716.87791	 	0.0014199	 	950.975	0.721	 
1385.0	1.0	0.0	7.34018	7.59322	-5.75085	17.67307	33.64175	1.20757	0.82811	44.19122	47.71155	16.42026	0.34563	 	6008.01429	 	0.00134704	 	947.373	0.7204	 
1380.0	1.0	0.0	7.34248	7.59084	-5.78043	17.65552	33.5696	1.20651	0.82883	44.73324	48.23291	16.62419	0.34543	 	6315.90298	 	0.00127751	 	943.774	0.7198	 
1375.0	1.0	0.0	7.34479	7.58846	-5.80996	17.63797	33.498	1.20544	0.82958	45.28028	48.75831	16.83004	0.34522	 	6641.614	 	0.00121118	 	940.177	0.7194	 
1370.0	1.0	0.0	7.34709	7.58608	-5.83944	17.62042	33.42695	1.20433	0.83034	45.83229	49.28766	17.0378	0.34502	 	6986.29234	 	0.00114793	 	936.584	0.7186	 
1365.0	1.0	0.0	7.34938	7.58371	-5.86888	17.60288	33.35648	1.2032	0.83111	46.38921	49.82089	17.24745	0.34481	 	7351.16357	 	0.00108764	 	932.993	0.7182	 
1360.0	1.0	0.0	7.35168	7.58135	-5.89827	17.58534	33.28659	1.20205	0.83191	46.95098	50.35792	17.45897	0.34461	 	7737.54005	 	0.00103017	 	929.405	0.7176	 
1355.0	1.0	0.0	7.35397	7.57898	-5.92761	17.5678	33.2173	1.20087	0.83273	47.51755	50.89868	17.67234	0.3444	 	8146.82762	 	9.75422E-4	 	925.82	0.717	 
1350.0	1.0	0.0	7.35626	7.57662	-5.9569	17.55026	33.14862	1.19966	0.83357	48.08887	51.4431	17.88754	0.3442	 	8580.53275	 	9.23275E-4	 	922.238	0.7164	 
1345.0	1.0	0.0	7.35855	7.57427	-5.98615	17.53272	33.08057	1.19843	0.83443	48.66488	51.99111	18.10455	0.344	 	9040.27045	 	8.73623E-4	 	918.659	0.7158	 
1340.0	1.0	0.0	7.36084	7.57191	-6.01535	17.51519	33.01316	1.19716	0.83531	49.24553	52.54263	18.32335	0.34379	 	9527.7727	 	8.26361E-4	 	915.082	0.7154	 
1335.0	1.0	0.0	7.36312	7.56956	-6.0445	17.49766	32.9464	1.19587	0.83621	49.83076	53.0976	18.54392	0.34359	 	10044.89764	 	7.8139E-4	 	911.507	0.715	 
1330.0	1.0	0.0	7.3654	7.56722	-6.07361	17.48013	32.88031	1.19455	0.83714	50.42052	53.65594	18.76625	0.34338	 	10593.63958	 	7.38611E-4	 	907.936	0.7142	 
1325.0	1.0	0.0	7.36768	7.56488	-6.10267	17.4626	32.81489	1.1932	0.83808	51.01475	54.21757	18.9903	0.34318	 	11176.13978	 	6.97931E-4	 	904.367	0.7138	 
1320.0	1.0	0.0	7.36996	7.56254	-6.13168	17.44507	32.75018	1.19182	0.83906	51.61341	54.78244	19.21608	0.34297	 	11794.69824	 	6.5926E-4	 	900.8	0.7134	 
1315.0	1.0	0.0	7.37223	7.56021	-6.16065	17.42755	32.68617	1.1904	0.84005	52.21643	55.35047	19.44355	0.34277	 	12451.7864	 	6.2251E-4	 	897.236	0.7128	 
1310.0	1.0	0.0	7.37451	7.55788	-6.18957	17.41002	32.62288	1.18896	0.84107	52.82376	55.92159	19.67269	0.34257	 	13150.06107	 	5.87599E-4	 	893.675	0.7122	 
1305.0	1.0	0.0	7.37678	7.55555	-6.21844	17.3925	32.56034	1.18748	0.84212	53.43536	56.49573	19.90349	0.34236	 	13892.37945	 	5.54445E-4	 	890.115	0.712	 
1300.0	1.0	0.0	7.37905	7.55323	-6.24727	17.37499	32.49854	1.18597	0.84319	54.05116	57.07283	20.13592	0.34216	 	14681.81554	 	5.2297E-4	 	886.559	0.7112	 
1295.0	1.0	0.0	7.38131	7.55091	-6.27604	17.35747	32.4375	1.18442	0.84429	54.67111	57.65281	20.36998	0.34195	 	15521.67797	 	4.93101E-4	 	883.004	0.711	 
1290.0	1.0	0.0	7.38358	7.54859	-6.30478	17.33996	32.37725	1.18284	0.84542	55.29516	58.23561	20.60563	0.34175	 	16415.52941	 	4.64764E-4	 	879.452	0.7104	 
1285.0	1.0	0.0	7.38584	7.54628	-6.33346	17.32244	32.31779	1.18123	0.84658	55.92325	58.82117	20.84286	0.34154	 	17367.20769	 	4.37891E-4	 	875.902	0.71	 
1280.0	1.0	0.0	7.3881	7.54398	-6.3621	17.30493	32.25913	1.17958	0.84776	56.55534	59.40941	21.08166	0.34134	 	18380.84886	 	4.12415E-4	 	872.354	0.7096	 
1275.0	1.0	0.0	7.39035	7.54167	-6.39069	17.28742	32.20129	1.17789	0.84897	57.19136	60.00026	21.32199	0.34114	 	19460.91228	 	3.88272E-4	 	868.809	0.709	 
1270.0	1.0	0.0	7.39261	7.53937	-6.41923	17.26992	32.14429	1.17617	0.85022	57.83127	60.59367	21.56384	0.34093	 	20612.20799	 	3.65402E-4	 	865.266	0.7086	 
1265.0	1.0	0.0	7.39486	7.53708	-6.44773	17.25241	32.08814	1.17441	0.85149	58.47501	61.18957	21.8072	0.34073	 	21839.92658	 	3.43743E-4	 	861.724	0.7084	 
1260.0	1.0	0.0	7.39711	7.53479	-6.47618	17.23491	32.03285	1.17261	0.8528	59.12253	61.78788	22.05204	0.34052	 	23149.67184	 	3.23241E-4	 	858.185	0.7078	 
1255.0	1.0	0.0	7.39935	7.5325	-6.50459	17.21741	31.97844	1.17078	0.85413	59.77377	62.38856	22.29835	0.34032	 	24547.4963	 	3.0384E-4	 	854.648	0.7074	 
1250.0	1.0	0.0	7.4016	7.53021	-6.53294	17.19991	31.92492	1.1689	0.8555	60.42869	62.99152	22.5461	0.34011	 	26039.94023	 	2.85489E-4	 	851.112	0.7072	 
1245.0	1.0	0.0	7.40384	7.52793	-6.56125	17.18242	31.8723	1.16699	0.8569	61.08723	63.59672	22.79527	0.33991	 	27634.07412	 	2.68137E-4	 	847.579	0.7066	 
1240.0	1.0	0.0	7.40608	7.52565	-6.58952	17.16492	31.82061	1.16504	0.85834	61.74933	64.20408	23.04586	0.33971	 	29337.54524	 	2.51736E-4	 	844.047	0.7064	 
1235.0	1.0	0.0	7.40832	7.52338	-6.61773	17.14743	31.76984	1.16304	0.85981	62.41494	64.81355	23.29783	0.3395	 	31158.62858	 	2.3624E-4	 	840.517	0.706	 
1230.0	1.0	0.0	7.41056	7.52111	-6.6459	17.12994	31.72003	1.16101	0.86132	63.08402	65.42505	23.55117	0.3393	 	33106.28258	 	2.21605E-4	 	836.989	0.7056	 
1225.0	1.0	0.0	7.41279	7.51885	-6.67403	17.11245	31.67118	1.15893	0.86286	63.7565	66.03853	23.80586	0.33909	 	35190.21025	 	2.07788E-4	 	833.462	0.7054	 
1220.0	1.0	0.0	7.41502	7.51658	-6.7021	17.09496	31.6233	1.15681	0.86445	64.43235	66.65392	24.06188	0.33889	 	37420.92608	 	1.94749E-4	 	829.937	0.705	 
1215.0	1.0	0.0	7.41725	7.51433	-6.73013	17.07748	31.57641	1.15465	0.86606	65.11149	67.27117	24.31921	0.33868	 	39809.8295	 	1.8245E-4	 	826.414	0.7046	 
1210.0	1.0	0.0	7.41947	7.51207	-6.75812	17.06	31.53053	1.15244	0.86772	65.79388	67.89022	24.57784	0.33848	 	42369.28542	 	1.70852E-4	 	822.892	0.7044	 
1205.0	1.0	0.0	7.4217	7.50982	-6.78605	17.04251	31.48567	1.1502	0.86942	66.47947	68.51099	24.83774	0.33828	 	45112.71269	 	1.59921E-4	 	819.371	0.7042	 
1200.0	1.0	0.0	7.42392	7.50757	-6.81394	17.02504	31.44184	1.1479	0.87115	67.16821	69.13343	25.0989	0.33807	 	48054.68122	 	1.49623E-4	 	815.852	0.7038	 
1195.0	1.0	0.0	7.42614	7.50533	-6.84178	17.00756	31.39905	1.14557	0.87293	67.86004	69.75749	25.36129	0.33787	 	51211.01877	 	1.39924E-4	 	812.334	0.7036	 
1190.0	1.0	0.0	7.42835	7.50309	-6.86958	16.99008	31.35733	1.14318	0.87475	68.55492	70.3831	25.62489	0.33766	 	54598.92834	 	1.30795E-4	 	808.817	0.7034	 
1185.0	1.0	0.0	7.43057	7.50086	-6.89733	16.97261	31.31668	1.14076	0.87661	69.25278	71.0102	25.8897	0.33746	 	58237.11736	 	1.22205E-4	 	805.301	0.7032	 
1180.0	1.0	0.0	7.43278	7.49862	-6.92503	16.95514	31.27711	1.13828	0.87852	69.95358	71.63873	26.15568	0.33725	 	62145.93985	 	1.14126E-4	 	801.786	0.703	 
1175.0	1.0	0.0	7.43499	7.4964	-6.95269	16.93767	31.23866	1.13576	0.88047	70.65726	72.26864	26.42283	0.33705	 	66347.5531	 	1.06531E-4	 	798.273	0.7026	 
1170.0	1.0	0.0	7.4372	7.49417	-6.9803	16.92021	31.20131	1.1332	0.88246	71.36377	72.89986	26.69111	0.33685	 	70866.09029	 	9.93939E-5	 	794.76	0.7026	 
1165.0	1.0	0.0	7.4394	7.49195	-7.00786	16.90274	31.1651	1.13058	0.8845	72.07307	73.53234	26.96052	0.33664	 	75727.85088	 	9.26905E-5	 	791.248	0.7024	 
1160.0	1.0	0.0	7.4416	7.48973	-7.03538	16.88528	31.13003	1.12792	0.88659	72.7851	74.16602	27.23103	0.33644	 	80961.51064	 	8.63972E-5	 	787.737	0.7022	 
1155.0	1.0	0.0	7.4438	7.48752	-7.06285	16.86782	31.09612	1.12521	0.88872	73.4998	74.80084	27.50263	0.33623	 	86598.35364	 	8.04917E-5	 	784.226	0.7022	 
1150.0	1.0	0.0	7.446	7.48531	-7.09027	16.85036	31.06339	1.12245	0.89091	74.21712	75.43675	27.77529	0.33603	 	92672.52847	 	7.49525E-5	 	780.716	0.702	 
1145.0	1.0	0.0	7.44819	7.48311	-7.11765	16.8329	31.03183	1.11965	0.89314	74.93703	76.07369	28.049	0.33582	 	99221.33147	 	6.97596E-5	 	777.207	0.7018	 
1140.0	1.0	0.0	7.45039	7.4809	-7.14497	16.81545	31.00148	1.11679	0.89542	75.65945	76.7116	28.32373	0.33562	 	106285.5201	 	6.48935E-5	 	773.698	0.7018	 
1135.0	1.0	0.0	7.45258	7.47871	-7.17226	16.79799	30.97234	1.11389	0.89776	76.38434	77.35043	28.59948	0.33541	 	113909.6595	 	6.03358E-5	 	770.189	0.7018	 
1130.0	1.0	0.0	7.45476	7.47651	-7.19949	16.78054	30.94443	1.11093	0.90014	77.11165	77.99013	28.87621	0.33521	 	122142.5069	 	5.60692E-5	 	766.68	0.7018	 
1125.0	1.0	0.0	7.45695	7.47432	-7.22668	16.76309	30.91775	1.10793	0.90258	77.84133	78.63062	29.15392	0.33501	 	131037.437	 	5.20769E-5	 	763.171	0.7018	 
1120.0	1.0	0.0	7.45913	7.47213	-7.25383	16.74565	30.89233	1.10488	0.90508	78.57332	79.27187	29.43257	0.3348	 	140652.9137	 	4.83433E-5	 	759.663	0.7016	 
1115.0	1.0	0.0	7.46131	7.46995	-7.28092	16.7282	30.86818	1.10177	0.90763	79.30757	79.91382	29.71216	0.3346	 	151053.0141	 	4.48532E-5	 	756.154	0.7018	 
1110.0	1.0	0.0	7.46349	7.46777	-7.30797	16.71076	30.8453	1.09862	0.91024	80.04404	80.55641	29.99267	0.33439	 	162308.01	 	4.15926E-5	 	752.645	0.7018	 
1105.0	1.0	0.0	7.46566	7.4656	-7.33498	16.69332	30.82372	1.09541	0.9129	80.78267	81.19959	30.27407	0.33419	 	174495.0136	 	3.85479E-5	 	749.136	0.7018	 
1100.0	1.0	0.0	7.46783	7.46342	-7.36193	16.67588	30.80345	1.09216	0.91562	81.52341	81.8433	30.55635	0.33398	 	187698.6962	 	3.57062E-5	 	745.626	0.702	 
1095.0	1.0	0.0	7.47	7.46126	-7.38884	16.65844	30.7845	1.08885	0.9184	82.2662	82.48749	30.83948	0.33378	 	202012.0871	 	3.30554E-5	 	742.116	0.702	 
1090.0	1.0	0.0	7.47217	7.45909	-7.41571	16.64101	30.76688	1.08549	0.92124	83.01101	83.13211	31.12346	0.33358	 	217537.4635	 	3.05841E-5	 	738.605	0.7022	 
1085.0	1.0	0.0	7.47434	7.45693	-7.44252	16.62357	30.7506	1.08208	0.92414	83.75777	83.77711	31.40826	0.33337	 	234387.3415	 	2.82814E-5	 	735.093	0.7024	 
1080.0	1.0	0.0	7.4765	7.45477	-7.4693	16.60614	30.73568	1.07862	0.92711	84.50643	84.42243	31.69385	0.33317	 	252685.5818	 	2.61368E-5	 	731.581	0.7024	 
1075.0	1.0	0.0	7.47866	7.45262	-7.49602	16.58871	30.72214	1.07511	0.93014	85.25695	85.06802	31.98023	0.33296	 	272568.6221	 	2.41407E-5	 	728.067	0.7028	 
1070.0	1.0	0.0	7.48082	7.45047	-7.5227	16.57129	30.70998	1.07155	0.93323	86.00927	85.71383	32.26738	0.33276	 	294186.854	 	2.22837E-5	 	724.552	0.703	 
1065.0	1.0	0.0	7.48297	7.44833	-7.54933	16.55386	30.69922	1.06793	0.93639	86.76334	86.3598	32.55527	0.33255	 	317706.1611	 	2.05573E-5	 	721.035	0.7034	 
1060.0	1.0	0.0	7.48512	7.44619	-7.57591	16.53644	30.68987	1.06427	0.93961	87.51911	87.00589	32.84388	0.33235	 	343309.6384	 	1.89531E-5	 	717.517	0.7036	 
1055.0	1.0	0.0	7.48727	7.44405	-7.60245	16.51902	30.68194	1.06055	0.94291	88.27653	87.65205	33.13321	0.33215	 	371199.5166	 	1.74633E-5	 	713.998	0.7038	 
1050.0	1.0	0.0	7.48942	7.44191	-7.62894	16.5016	30.67544	1.05678	0.94627	89.03555	88.29822	33.42322	0.33194	 	401599.3167	 	1.60806E-5	 	710.476	0.7044	 
1045.0	1.0	0.0	7.49157	7.43978	-7.65539	16.48418	30.67039	1.05296	0.9497	89.79611	88.94436	33.7139	0.33174	 	434756.2642	 	1.47981E-5	 	706.953	0.7046	 
1040.0	1.0	0.0	7.49371	7.43766	-7.68179	16.46677	30.6668	1.04909	0.95321	90.55818	89.5904	34.00523	0.33153	 	470943.9968	 	1.36092E-5	 	703.427	0.7052	 
1035.0	1.0	0.0	7.49585	7.43553	-7.70814	16.44935	30.66468	1.04517	0.95679	91.32169	90.23632	34.2972	0.33133	 	510465.6034	 	1.25077E-5	 	699.899	0.7056	 
1030.0	1.0	0.0	7.49798	7.43341	-7.73445	16.43194	30.66405	1.04119	0.96044	92.08659	90.88204	34.58978	0.33112	 	553657.0364	 	1.14879E-5	 	696.369	0.706	 
1025.0	1.0	0.0	7.50012	7.4313	-7.7607	16.41453	30.66491	1.03717	0.96416	92.85284	91.52753	34.88295	0.33092	 	600890.9494	 	1.05443E-5	 	692.836	0.7066	 
1020.0	1.0	0.0	7.50225	7.42919	-7.78692	16.39712	30.66727	1.03309	0.96797	93.62039	92.17274	35.1767	0.33072	 	652581.012	 	9.67166E-6	 	689.299	0.7074	 
1015.0	1.0	0.0	7.50438	7.42708	-7.81308	16.37972	30.67116	1.02897	0.97185	94.38917	92.81761	35.47101	0.33051	 	709186.7699	 	8.86528E-6	 	685.76	0.7078	 
1010.0	1.0	0.0	7.50651	7.42497	-7.8392	16.36232	30.67657	1.02479	0.97581	95.15915	93.46211	35.76586	0.33031	 	771219.1203	 	8.12057E-6	 	682.218	0.7084	 
1005.0	1.0	0.0	7.50863	7.42287	-7.86528	16.34491	30.68353	1.02057	0.97984	95.93027	94.10617	36.06123	0.3301	 	839246.4859	 	7.43325E-6	 	678.671	0.7094	 
1000.0	1.0	0.0	7.51075	7.42078	-7.89131	16.32751	30.69204	1.0163	0.98397	96.70249	94.74976	36.35709	0.3299	 	913901.7852	 	6.79934E-6	 	675.122	0.7098	 
995.0	1.0	0.0	7.51287	7.41868	-7.91729	16.31012	30.70211	1.01197	0.98817	97.47574	95.39282	36.65345	0.32969	 	995890.3044	 	6.21507E-6	 	671.568	0.7108	 
990.0	1.0	0.0	7.51499	7.41659	-7.94322	16.29272	30.71376	1.0076	0.99246	98.24999	96.0353	36.95026	0.32949	 	1085998.598	 	5.67691E-6	 	668.009	0.7118	 
985.0	1.0	0.0	7.5171	7.41451	-7.96911	16.27533	30.72699	1.00318	0.99683	99.02517	96.67717	37.24752	0.32929	 	1185104.562	 	5.18158E-6	 	664.446	0.7126	 
980.0	1.0	0.0	7.51921	7.41243	-7.99495	16.25794	30.74182	0.99871	1.00129	99.80125	97.31837	37.5452	0.32908	 	1294188.839	 	4.72598E-6	 	660.879	0.7134	 
975.0	1.0	0.0	7.52132	7.41035	-8.02075	16.24055	30.75826	0.99419	1.00584	100.57816	97.95886	37.8433	0.32888	 	1414347.749	 	4.30722E-6	 	657.306	0.7146	 
970.0	1.0	0.0	7.52343	7.40827	-8.0465	16.22316	30.77632	0.98963	1.01048	101.35587	98.59859	38.14178	0.32867	 	1546807.961	 	3.9226E-6	 	653.728	0.7156	 
965.0	1.0	0.0	7.52553	7.4062	-8.0722	16.20577	30.796	0.98502	1.01521	102.13431	99.23751	38.44063	0.32847	 	1692943.152	 	3.56958E-6	 	650.144	0.7168	 
960.0	1.0	0.0	7.52763	7.40413	-8.09785	16.18839	30.81732	0.98036	1.02003	102.91344	99.87558	38.73983	0.32826	 	1854292.943	 	3.24582E-6	 	646.554	0.718	 
955.0	1.0	0.0	7.52973	7.40207	-8.12346	16.17101	30.84029	0.97566	1.02495	103.69322	100.51276	39.03937	0.32806	 	2032584.445	 	2.9491E-6	 	642.958	0.7192	 
950.0	1.0	0.0	7.53183	7.40001	-8.14903	16.15363	30.86492	0.97091	1.02996	104.47358	101.14899	39.33922	0.32786	 	2229756.794	 	2.67737E-6	 	639.355	0.7206	 
945.0	1.0	0.0	7.53392	7.39796	-8.17455	16.13625	30.89122	0.96612	1.03507	105.25448	101.78424	39.63936	0.32765	 	2447989.113	 	2.42872E-6	 	635.745	0.722	 
940.0	1.0	0.0	7.53601	7.3959	-8.20002	16.11888	30.9192	0.96129	1.04027	106.03586	102.41845	39.93978	0.32745	 	2689732.423	 	2.20137E-6	 	632.127	0.7236	 
935.0	1.0	0.0	7.5381	7.39386	-8.22544	16.1015	30.94886	0.95641	1.04558	106.81769	103.05158	40.24046	0.32724	 	2957746.086	 	1.99364E-6	 	628.502	0.725	 
930.0	1.0	0.0	7.54018	7.39181	-8.25082	16.08413	30.98022	0.95148	1.05099	107.5999	103.6836	40.54138	0.32704	 	3255139.461	 	1.804E-6	 	624.868	0.7268	 
925.0	1.0	0.0	7.54227	7.38977	-8.27615	16.06676	31.01329	0.94652	1.0565	108.38246	104.31445	40.84252	0.32683	 	3585419.581	 	1.63101E-6	 	621.226	0.7284	 
920.0	1.0	0.0	7.54435	7.38773	-8.30144	16.04939	31.04807	0.94151	1.06212	109.1653	104.94409	41.14386	0.32663	 	3952545.762	 	1.47335E-6	 	617.574	0.7304	 
915.0	1.0	0.0	7.54642	7.3857	-8.32668	16.03203	31.08458	0.93647	1.06784	109.94838	105.57247	41.44538	0.32643	 	4360992.227	 	1.32976E-6	 	613.912	0.7324	 
910.0	1.0	0.0	7.5485	7.38367	-8.35187	16.01467	31.12282	0.93138	1.07368	110.73165	106.19956	41.74706	0.32622	 	4815819.99	 	1.1991E-6	 	610.24	0.7344	 
905.0	1.0	0.0	7.55057	7.38164	-8.37702	15.9973	31.16279	0.92625	1.07962	111.51506	106.82532	42.0489	0.32602	 	5322759.45	 	1.08032E-6	 	606.557	0.7366	 
900.0	1.0	0.0	7.55264	7.37962	-8.40212	15.97994	31.20452	0.92109	1.08567	112.29856	107.44969	42.35086	0.32581	 	5888305.413	 	9.72411E-7	 	602.863	0.7388	 
895.0	1.0	0.0	7.55471	7.3776	-8.42717	15.96259	31.24801	0.91589	1.09184	113.0821	108.07263	42.65292	0.32561	 	6519826.505	 	8.74479E-7	 	599.157	0.7412	 
890.0	1.0	0.0	7.55677	7.37559	-8.45218	15.94523	31.29326	0.91065	1.09812	113.86563	108.69411	42.95508	0.3254	 	7225691.308	 	7.85675E-7	 	595.437	0.744	 
885.0	1.0	0.0	7.55883	7.37358	-8.47714	15.92788	31.34029	0.90537	1.10452	114.6491	109.31408	43.25731	0.3252	 	8015413.936	 	7.05222E-7	 	591.705	0.7464	 
880.0	1.0	0.0	7.56089	7.37157	-8.50206	15.91053	31.3891	0.90006	1.11103	115.43246	109.9325	43.55959	0.32499	 	8899822.23	 	6.32399E-7	 	587.958	0.7494	 
875.0	1.0	0.0	7.56294	7.36957	-8.52693	15.89318	31.43969	0.89472	1.11767	116.21566	110.54932	43.8619	0.32479	 	9891252.309	 	5.66545E-7	 	584.196	0.7524	 
870.0	1.0	0.0	7.565	7.36757	-8.55175	15.87583	31.49209	0.88934	1.12443	116.99866	111.16451	44.16423	0.32459	 	1.100377387E7	 	5.07047E-7	 	580.418	0.7556	 
865.0	1.0	0.0	7.56705	7.36557	-8.57653	15.85848	31.54628	0.88393	1.13131	117.7814	111.77803	44.46655	0.32438	 	1.22534514E7	 	4.53344E-7	 	576.623	0.759	 
860.0	1.0	0.0	7.5691	7.36358	-8.60126	15.84114	31.60229	0.87849	1.13832	118.56383	112.38983	44.76885	0.32418	 	1.365864738E7	 	4.04917E-7	 	572.81	0.7626	 
855.0	1.0	0.0	7.57114	7.36159	-8.62595	15.8238	31.66011	0.87301	1.14546	119.3459	112.99987	45.07111	0.32397	 	1.524037466E7	 	3.61292E-7	 	568.978	0.7664	 
850.0	1.0	0.0	7.57318	7.3596	-8.65059	15.80646	31.71976	0.86751	1.15273	120.12757	113.60812	45.37331	0.32377	 	1.702270644E7	 	3.2203E-7	 	565.126	0.7704	 
845.0	1.0	0.0	7.57522	7.35762	-8.67518	15.78912	31.78123	0.86198	1.16012	120.90879	114.21452	45.67543	0.32356	 	1.903325397E7	 	2.8673E-7	 	561.253	0.7746	 
840.0	1.0	0.0	7.57726	7.35564	-8.69973	15.77178	31.84455	0.85642	1.16766	121.6895	114.81905	45.97746	0.32336	 	2.130372372E7	 	2.55026E-7	 	557.358	0.779	 
835.0	1.0	0.0	7.57929	7.35367	-8.72423	15.75445	31.9097	0.85083	1.17533	122.46966	115.42166	46.27937	0.32316	 	2.387056808E7	 	2.2658E-7	 	553.438	0.784	 
830.0	1.0	0.0	7.58132	7.3517	-8.74868	15.73712	31.9767	0.84521	1.18313	123.24921	116.02232	46.58114	0.32295	 	2.67757464E7	 	2.01085E-7	 	549.493	0.789	 
825.0	1.0	0.0	7.58335	7.34973	-8.77309	15.71979	32.04556	0.83958	1.19108	124.02812	116.62098	46.88276	0.32275	 	3.006761607E7	 	1.78258E-7	 	545.52	0.7946	 
820.0	1.0	0.0	7.58538	7.34777	-8.79745	15.70246	32.11627	0.83391	1.19917	124.80632	117.2176	47.18421	0.32254	 	3.380197733E7	 	1.57843E-7	 	541.519	0.8002	 
815.0	1.0	0.0	7.5874	7.34581	-8.82177	15.68513	32.18885	0.82823	1.2074	125.58378	117.81214	47.48547	0.32234	 	3.804329995E7	 	1.39604E-7	 	537.486	0.8066	 
810.0	1.0	0.0	7.58942	7.34386	-8.84604	15.66781	32.2633	0.82252	1.21578	126.36044	118.40458	47.78652	0.32213	 	4.286616539E7	 	1.23328E-7	 	533.421	0.813	 
805.0	1.0	0.0	7.59144	7.34191	-8.87026	15.65049	32.33962	0.81679	1.2243	127.13625	118.99486	48.08735	0.32193	 	4.835696464E7	 	1.0882E-7	 	529.32	0.8202	 
800.0	1.0	0.0	7.59345	7.33996	-8.89444	15.63317	32.41782	0.81104	1.23298	127.91116	119.58295	48.38793	0.32173	 	5.461589977E7	 	9.59021E-8	 	525.181	0.8278	 
795.0	1.0	0.0	7.59546	7.33801	-8.91857	15.61585	32.4979	0.80527	1.24182	128.68513	120.16881	48.68824	0.32152	 	6.175934704E7	 	8.44143E-8	 	521.001	0.836	 
790.0	1.0	0.0	7.59747	7.33607	-8.94266	15.59853	32.57987	0.79949	1.2508	129.45811	120.75241	48.98827	0.32132	 	6.992265065E7	 	7.42102E-8	 	516.778	0.8446	 
785.0	1.0	0.0	7.59948	7.33414	-8.96669	15.58122	32.66373	0.79368	1.25995	130.23004	121.3337	49.288	0.32111	 	7.926343066E7	 	6.5157E-8	 	512.508	0.854	 
780.0	1.0	0.0	7.60148	7.3322	-8.99069	15.56391	32.74948	0.78787	1.26925	131.00088	121.91265	49.5874	0.32091	 	8.996550522E7	 	5.71348E-8	 	508.187	0.8642	 
775.0	1.0	0.0	7.60348	7.33027	-9.01464	15.5466	32.83713	0.78203	1.27872	131.77058	122.48922	49.88647	0.3207	 	1.022435485E8	 	5.0035E-8	 	503.812	0.875	 
770.0	1.0	0.0	7.60548	7.32835	-9.03854	15.52929	32.92669	0.77618	1.28835	132.5391	123.06338	50.18518	0.3205	 	1.163486301E8	 	4.37595E-8	 	499.378	0.8868	 
765.0	1.0	0.0	7.60748	7.32643	-9.06239	15.51198	33.01815	0.77032	1.29815	133.30637	123.63508	50.48352	0.3203	 	1.325748144E8	 	3.82196E-8	 	494.88	0.8996	 
760.0	1.0	0.0	7.60947	7.32451	-9.0862	15.49468	33.11151	0.76445	1.30813	134.07236	124.2043	50.78146	0.32009	 	1.51267032E8	 	3.33354E-8	 	490.001	0.9758	 
755.0	1.0	0.0	7.61146	7.32259	-9.10996	15.47738	33.20679	0.75857	1.31827	134.83702	124.77098	51.07899	0.31989	 	1.728304875E8	 	2.90351E-8	 	484.803	1.0396	 
750.0	1.0	0.0	7.61345	7.32068	-9.13368	15.46008	33.30398	0.75268	1.32859	135.60029	125.33511	51.37608	0.31968	 	1.977419177E8	 	2.52538E-8	 	479.671	1.0264	 
745.0	1.0	0.0	7.61543	7.31878	-9.15735	15.44278	33.40309	0.74678	1.33909	136.36214	125.89664	51.67273	0.31948	 	2.265630885E8	 	2.19336E-8	 	474.603	1.0136	 
740.0	1.0	0.0	7.61741	7.31687	-9.18098	15.42548	33.50411	0.74087	1.34977	137.1225	126.45554	51.96891	0.31927	 	2.599570018E8	 	1.90221E-8	 	469.596	1.0014	 
735.0	1.0	0.0	7.61939	7.31497	-9.20456	15.40819	33.60705	0.73496	1.36063	137.88134	127.01177	52.2646	0.31907	 	2.987073899E8	 	1.64727E-8	 	464.65	0.9892	 
730.0	1.0	0.0	7.62136	7.31308	-9.22809	15.39089	33.71191	0.72904	1.37168	138.63861	127.5653	52.55978	0.31887	 	3.437422024E8	 	1.42436E-8	 	459.761	0.9778	 
725.0	1.0	0.0	7.62334	7.31118	-9.25158	15.3736	33.81869	0.72311	1.38291	139.39425	128.11609	52.85445	0.31866	 	3.961619559E8	 	1.22973E-8	 	454.929	0.9664	 
720.0	1.0	0.0	7.62531	7.3093	-9.27502	15.35632	33.9274	0.71718	1.39434	140.14822	128.6641	53.14856	0.31846	 	4.572740101E8	 	1.06005E-8	 	450.15	0.9558	 
715.0	1.0	0.0	7.62727	7.30741	-9.29841	15.33903	34.03803	0.71125	1.40597	140.90047	129.20931	53.44212	0.31825	 	5.286340848E8	 	9.12335E-9	 	445.424	0.9452	 
710.0	1.0	0.0	7.62924	7.30553	-9.32176	15.32174	34.15059	0.70532	1.41779	141.65096	129.75168	53.7351	0.31805	 	6.120966402E8	 	7.83947E-9	 	440.748	0.9352	 
705.0	1.0	0.0	7.6312	7.30365	-9.34507	15.30446	34.26507	0.69939	1.42982	142.39963	130.29117	54.02749	0.31784	 	7.098761226E8	 	6.72527E-9	 	436.122	0.9252	 
700.0	1.0	0.0	7.63316	7.30178	-9.36832	15.28718	34.38147	0.69346	1.44204	143.14645	130.82775	54.31925	0.31764	 	8.246215613E8	 	5.75986E-9	 	431.543	0.9158	 
695.0	1.0	0.0	7.63511	7.29991	-9.39154	15.2699	34.49981	0.68753	1.45448	143.89135	131.36139	54.61038	0.31744	 	9.595075976E8	 	4.92471E-9	 	427.01	0.9066	 
690.0	1.0	0.0	7.63706	7.29804	-9.4147	15.25263	34.62007	0.6816	1.46713	144.6343	131.89205	54.90087	0.31723	 	1.118345782E9	 	4.20344E-9	 	422.522	0.8976	 
685.0	1.0	0.0	7.63901	7.29618	-9.43782	15.23535	34.74225	0.67568	1.47999	145.37524	132.41971	55.19067	0.31703	 	1.30572092E9	 	3.58154E-9	 	418.078	0.8888	 
680.0	1.0	0.0	7.64096	7.29432	-9.4609	15.21808	34.86636	0.66976	1.49307	146.11413	132.94432	55.4798	0.31682	 	1.527158435E9	 	3.04624E-9	 	413.676	0.8804	 
675.0	1.0	0.0	7.6429	7.29247	-9.48392	15.20081	34.99239	0.66385	1.50637	146.85092	133.46585	55.76821	0.31662	 	1.78933022E9	 	2.58627E-9	 	409.314	0.8724	 
670.0	1.0	0.0	7.64485	7.29061	-9.50691	15.18354	35.12035	0.65794	1.51989	147.58557	133.98428	56.0559	0.31641	 	2.100308361E9	 	2.19172E-9	 	404.993	0.8642	 
665.0	1.0	0.0	7.64678	7.28877	-9.52984	15.16628	35.25022	0.65204	1.53364	148.31803	134.49957	56.34284	0.31621	 	2.469878501E9	 	1.85389E-9	 	400.711	0.8564	 
660.0	1.0	0.0	7.64872	7.28692	-9.55273	15.14901	35.38202	0.64615	1.54762	149.04825	135.01168	56.62903	0.31601	 	2.909927702E9	 	1.56515E-9	 	396.466	0.849	 
655.0	1.0	0.0	7.65065	7.28508	-9.57558	15.13175	35.51574	0.64027	1.56184	149.77618	135.52059	56.91443	0.3158	 	3.434925547E9	 	1.31883E-9	 	392.258	0.8416	 
650.0	1.0	0.0	7.65258	7.28324	-9.59838	15.11449	35.65137	0.6344	1.5763	150.50178	136.02627	57.19904	0.3156	 	4.062522211E9	 	1.10908E-9	 	388.086	0.8344	 
645.0	1.0	0.0	7.65451	7.28141	-9.62113	15.09723	35.78892	0.62854	1.591	151.225	136.52868	57.48283	0.31539	 	4.814293586E9	 	9.30824E-10	 	383.948	0.8276	 
640.0	1.0	0.0	7.65643	7.27958	-9.64383	15.07997	35.92838	0.62269	1.60594	151.9458	137.02779	57.76578	0.31519	 	5.716671745E9	 	7.79625E-10	 	379.845	0.8206	 
635.0	1.0	0.0	7.65835	7.27776	-9.6665	15.06272	36.06975	0.61685	1.62114	152.66412	137.52358	58.04789	0.31498	 	6.802109506E9	 	6.51629E-10	 	375.775	0.814	 
630.0	1.0	0.0	7.66027	7.27593	-9.68911	15.04547	36.21302	0.61103	1.63659	153.37993	138.016	58.32912	0.31478	 	8.110541416E9	 	5.43496E-10	 	371.737	0.8076	 
625.0	1.0	0.0	7.66218	7.27412	-9.71168	15.02821	36.3582	0.60522	1.65229	154.09317	138.50504	58.60947	0.31458	 	9.691220981E9	 	4.52332E-10	 	367.731	0.8012	 
620.0	1.0	0.0	7.6641	7.2723	-9.7342	15.01097	36.50529	0.59942	1.66827	154.8038	138.99065	58.88891	0.31437	 	1.1605E10	 	3.75634E-10	 	363.756	0.795	 
615.0	1.0	0.0	7.66601	7.27049	-9.75668	14.99372	36.65426	0.59365	1.6845	155.51177	139.47282	59.16742	0.31417	 	1.3927399999999998E10	 	3.11245E-10	 	359.81	0.7892	 
610.0	1.0	0.0	7.66791	7.26868	-9.77911	14.97647	36.80514	0.58788	1.70101	156.21705	139.95151	59.445	0.31396	 	1.6752099999999998E10	 	2.57306E-10	 	355.895	0.783	 
605.0	1.0	0.0	7.66981	7.26688	-9.8015	14.95923	36.9579	0.58214	1.7178	156.91957	140.42669	59.72161	0.31376	 	2.01959E10	 	2.12223E-10	 	352.008	0.7774	 
600.0	1.0	0.0	7.67171	7.26508	-9.82384	14.94199	37.11255	0.57641	1.73487	157.6193	140.89833	59.99725	0.31355	 	2.4404199999999996E10	 	1.74627E-10	 	348.149	0.7718	 
595.0	1.0	0.0	7.67361	7.26328	-9.84614	14.92475	37.26908	0.57071	1.75222	158.31619	141.3664	60.2719	0.31335	 	2.9559599999999996E10	 	1.43345E-10	 	344.317	0.7664	 
590.0	1.0	0.0	7.67551	7.26149	-9.86838	14.90752	37.42748	0.56502	1.76986	159.0102	141.83088	60.54553	0.31315	 	3.58907E10	 	1.17379E-10	 	340.513	0.7608	 
585.0	1.0	0.0	7.6774	7.2597	-9.89059	14.89028	37.58776	0.55935	1.78779	159.70128	142.29174	60.81813	0.31294	 	4.36852E10	 	9.58773E-11	 	336.735	0.7556	 
580.0	1.0	0.0	7.67929	7.25792	-9.91275	14.87305	37.74991	0.5537	1.80603	160.38939	142.74894	61.08968	0.31274	 	5.330609999999999E10	 	7.81152E-11	 	332.983	0.7504	 
575.0	1.0	0.0	7.68117	7.25614	-9.93486	14.85582	37.91391	0.54808	1.82457	161.07447	143.20246	61.36016	0.31253	 	6.521239999999999E10	 	6.34789E-11	 	329.257	0.7452	 
570.0	1.0	0.0	7.68305	7.25436	-9.95692	14.83859	38.07978	0.54247	1.84342	161.75649	143.65228	61.62957	0.31233	 	7.99864E10	 	5.14488E-11	 	325.555	0.7404	 
565.0	1.0	0.0	7.68493	7.25258	-9.97894	14.82136	38.24749	0.53689	1.86258	162.43541	144.09836	61.89787	0.31212	 	9.836849999999998E10	 	4.15865E-11	 	321.878	0.7354	 
560.0	1.0	0.0	7.68681	7.25081	-10.00092	14.80414	38.41706	0.53133	1.88207	163.11117	144.54068	62.16505	0.31192	 	1.21303E11	 	3.35226E-11	 	318.224	0.7308	 
555.0	1.0	0.0	7.68868	7.24905	-10.02285	14.78691	38.58846	0.5258	1.90188	163.78373	144.97921	62.4311	0.31172	 	1.49999E11	 	2.69468E-11	 	314.594	0.726	 
550.0	1.0	0.0	7.69055	7.24728	-10.04473	14.76969	38.76169	0.52029	1.92202	164.45305	145.41392	62.696	0.31151	 	1.86006E11	 	2.15992E-11	 	310.987	0.7214	 
545.0	1.0	0.0	7.69242	7.24552	-10.06657	14.75247	38.93675	0.5148	1.9425	165.11909	145.84479	62.95972	0.31131	 	2.3132E11	 	1.72626E-11	 	307.403	0.7168	 
540.0	1.0	0.0	7.69428	7.24377	-10.08836	14.73526	39.11363	0.50934	1.96332	165.7818	146.2718	63.22226	0.3111	 	2.88517E11	 	1.37558E-11	 	303.841	0.7124	 
535.0	1.0	0.0	7.69615	7.24202	-10.11011	14.71804	39.29233	0.50391	1.98449	166.44114	146.69491	63.4836	0.3109	 	3.60933E11	 	1.09283E-11	 	300.301	0.708	 
530.0	1.0	0.0	7.698	7.24027	-10.13181	14.70083	39.47283	0.4985	2.00602	167.09706	147.1141	63.74371	0.31069	 	4.52901E11	 	8.65525E-12	 	296.782	0.7038	 
525.0	1.0	0.0	7.69986	7.23852	-10.15346	14.68362	39.65513	0.49312	2.02791	167.74952	147.52934	64.00258	0.31049	 	5.70072E11	 	6.83347E-12	 	293.284	0.6996	 
520.0	1.0	0.0	7.70171	7.23678	-10.17507	14.66641	39.83922	0.48776	2.05017	168.39848	147.94062	64.2602	0.31029	 	7.19835E11	 	5.37786E-12	 	289.807	0.6954	 
515.0	1.0	0.0	7.70356	7.23505	-10.19663	14.6492	40.0251	0.48244	2.0728	169.0439	148.3479	64.51655	0.31008	 	9.11883E11	 	4.21848E-12	 	286.351	0.6912	 
510.0	1.0	0.0	7.70541	7.23331	-10.21815	14.632	40.21275	0.47714	2.09581	169.68573	148.75116	64.77161	0.30988	 	1.15898E12	 	3.29802E-12	 	282.914	0.6874	 
505.0	1.0	0.0	7.70725	7.23158	-10.23962	14.61479	40.40217	0.47187	2.11922	170.32393	149.15038	65.02536	0.30967	 	1.47801E12	 	2.56964E-12	 	279.497	0.6834	 
500.0	1.0	0.0	7.70909	7.22986	-10.26105	14.59759	40.59335	0.46663	2.14301	170.95846	149.54553	65.27779	0.30947	 	1.89134E12	 	1.99518E-12	 	276.1	0.6794	 
495.0	1.0	0.0	7.71093	7.22813	-10.28243	14.58039	40.78629	0.46142	2.16722	171.58927	149.93659	65.52887	0.30926	 	2.42874E12	 	1.54366E-12	 	272.722	0.6756	 
490.0	1.0	0.0	7.71276	7.22641	-10.30377	14.5632	40.98096	0.45624	2.19183	172.21634	150.32354	65.77861	0.30906	 	3.13002E12	 	1.19001E-12	 	269.363	0.6718	 
485.0	1.0	0.0	7.71459	7.2247	-10.32506	14.546	41.17737	0.45109	2.21686	172.8396	150.70635	66.02697	0.30886	 	4.04852E12	 	9.13998E-13	 	266.022	0.6682	 
480.0	1.0	0.0	7.71642	7.22299	-10.3463	14.52881	41.37551	0.44597	2.24231	173.45903	151.08501	66.27394	0.30865	 	5.2561E12	 	6.99366E-13	 	262.7	0.6644	 
475.0	1.0	0.0	7.71825	7.22128	-10.3675	14.51162	41.57536	0.44088	2.2682	174.07458	151.45948	66.51951	0.30845	 	6.84987E12	 	5.33081E-13	 	259.395	0.661	 
470.0	1.0	0.0	7.72007	7.21958	-10.38865	14.49443	41.77692	0.43582	2.29453	174.68621	151.82975	66.76366	0.30824	 	8.96162E12	 	4.04741E-13	 	256.109	0.6572	 
465.0	1.0	0.0	7.72189	7.21788	-10.40976	14.47724	41.98018	0.43079	2.32131	175.29389	152.1958	67.00636	0.30804	 	1.17709E13	 	3.0607E-13	 	252.84	0.6538	 
460.0	1.0	0.0	7.7237	7.21618	-10.43082	14.46006	42.18512	0.42579	2.34855	175.89756	152.5576	67.24762	0.30783	 	1.55236E13	 	2.30509E-13	 	249.588	0.6504	 
455.0	1.0	0.0	7.72552	7.21448	-10.45184	14.44287	42.39174	0.42083	2.37626	176.4972	152.91514	67.48741	0.30763	 	2.05574E13	 	1.72878E-13	 	246.353	0.647	 
450.0	1.0	0.0	7.72733	7.2128	-10.47281	14.42569	42.60003	0.4159	2.40445	177.09276	153.26838	67.72571	0.30743	 	2.73385E13	 	1.29104E-13	 	243.136	0.6434	 
445.0	1.0	0.0	7.72913	7.21111	-10.49374	14.40851	42.80998	0.41099	2.43312	177.6842	153.61733	67.96252	0.30722	 	3.65133E13	 	9.59954E-14	 	239.934	0.6404	 
440.0	1.0	0.0	7.73094	7.20943	-10.51462	14.39134	43.02158	0.40613	2.46229	178.27149	153.96194	68.19781	0.30702	 	4.89823E13	 	7.10605E-14	 	236.749	0.637	 
435.0	1.0	0.0	7.73274	7.20775	-10.53545	14.37416	43.23481	0.40129	2.49197	178.85459	154.30221	68.43156	0.30681	 	6.60052E13	 	5.23641E-14	 	233.58	0.6338	 
430.0	1.0	0.0	7.73453	7.20607	-10.55624	14.35699	43.44966	0.39649	2.52216	179.43345	154.63812	68.66377	0.30661	 	8.93533E13	 	3.84082E-14	 	230.428	0.6304	 
425.0	1.0	0.0	7.73633	7.2044	-10.57698	14.33982	43.66614	0.39171	2.55288	180.00805	154.96964	68.89442	0.30641	 	1.21529E14	 	2.80386E-14	 	227.29	0.6276	 
420.0	1.0	0.0	7.73812	7.20274	-10.59768	14.32265	43.88421	0.38698	2.58413	180.57834	155.29677	69.1235	0.3062	 	1.66084E14	 	2.03698E-14	 	224.169	0.6242	 
415.0	1.0	0.0	7.73991	7.20107	-10.61833	14.30548	44.10388	0.38227	2.61594	181.14429	155.61947	69.35098	0.306	 	2.28087E14	 	1.47254E-14	 	221.062	0.6214	 
410.0	1.0	0.0	7.74169	7.19941	-10.63894	14.28831	44.32512	0.3776	2.6483	181.70586	155.93774	69.57686	0.30579	 	3.14809E14	 	1.05915E-14	 	217.971	0.6182	 
405.0	1.0	0.0	7.74347	7.19775	-10.6595	14.27115	44.54794	0.37296	2.68124	182.26301	156.25155	69.80112	0.30559	 	4.3673E14	 	7.57879E-15	 	214.895	0.6152	 
400.0	1.0	0.0	7.74525	7.1961	-10.68002	14.25399	44.77231	0.36836	2.71476	182.81571	156.5609	70.02374	0.30538	 	6.09042E14	 	5.39451E-15	 	211.834	0.6122	 
395.0	1.0	0.0	7.74703	7.19445	-10.70049	14.23683	44.99823	0.36378	2.74888	183.36394	156.86577	70.24472	0.30518	 	8.53886E14	 	3.8191E-15	 	208.787	0.6094	 
390.0	1.0	0.0	7.7488	7.19281	-10.72091	14.21967	45.22568	0.35925	2.7836	183.90764	157.16613	70.46403	0.30498	 	1.20371E15	 	2.68891E-15	 	205.755	0.6064	 
385.0	1.0	0.0	7.75057	7.19117	-10.74129	14.20252	45.45466	0.35474	2.81895	184.44678	157.46198	70.68166	0.30477	 	1.70636E15	 	1.88253E-15	 	202.737	0.6036	 
380.0	1.0	0.0	7.75233	7.18953	-10.76163	14.18536	45.68514	0.35027	2.85493	184.98135	157.7533	70.89761	0.30457	 	2.43273E15	 	1.3104E-15	 	199.733	0.6008	 
375.0	1.0	0.0	7.7541	7.18789	-10.78191	14.16821	45.91711	0.34583	2.89157	185.51129	158.04008	71.11185	0.30436	 	3.48861E15	 	9.06796E-16	 	196.742	0.5982	 
370.0	1.0	0.0	7.75586	7.18626	-10.80216	14.15106	46.15057	0.34143	2.92886	186.03658	158.3223	71.32438	0.30416	 	5.03272E15	 	6.23729E-16	 	193.766	0.5952	 
365.0	1.0	0.0	7.75761	7.18463	-10.82236	14.13391	46.3855	0.33706	2.96683	186.55719	158.59995	71.53518	0.30395	 	7.30473E15	 	4.26388E-16	 	190.803	0.5926	 
360.0	1.0	0.0	7.75937	7.18301	-10.84251	14.11677	46.62189	0.33272	3.0055	187.07308	158.87302	71.74424	0.30375	 	1.06688E16	 	2.89652E-16	 	187.854	0.5898	 
355.0	1.0	0.0	7.76112	7.18139	-10.86262	14.09963	46.85971	0.32842	3.04488	187.58423	159.14151	71.95154	0.30355	 	1.56821E16	 	1.95499E-16	 	184.918	0.5872	 
350.0	1.0	0.0	7.76286	7.17977	-10.88268	14.08248	47.09897	0.32415	3.08498	188.09061	159.40539	72.15707	0.30334	 	2.32024E16	 	1.31083E-16	 	181.996	0.5844	 
345.0	1.0	0.0	7.76461	7.17816	-10.90269	14.06534	47.33965	0.31992	3.12583	188.59218	159.66465	72.36083	0.30314	 	3.4559400000000004E16	 	8.73001E-17	 	179.086	0.582	 
340.0	1.0	0.0	7.76635	7.17655	-10.92267	14.04821	47.58173	0.31571	3.16743	189.08892	159.9193	72.5628	0.30293	 	5.18291E16	 	5.77404E-17	 	176.189	0.5794	 
335.0	1.0	0.0	7.76809	7.17495	-10.94259	14.03107	47.82519	0.31154	3.20981	189.58081	160.16931	72.76296	0.30273	 	7.82758E16	 	3.79201E-17	 	173.305	0.5768	 
330.0	1.0	0.0	7.76982	7.17335	-10.96247	14.01394	48.07004	0.30741	3.25299	190.06781	160.41468	72.96132	0.30252	 	1.19069E17	 	2.47236E-17	 	170.434	0.5742	 
325.0	1.0	0.0	7.77155	7.17175	-10.98231	13.99681	48.31624	0.30331	3.29698	190.54989	160.65541	73.15785	0.30232	 	1.82459E17	 	1.60004E-17	 	167.575	0.5718	 
320.0	1.0	0.0	7.77328	7.17015	-11.0021	13.97968	48.56379	0.29924	3.34181	191.02705	160.89149	73.35254	0.30212	 	2.8171E17	 	1.02766E-17	 	164.728	0.5694	 
315.0	1.0	0.0	7.77501	7.16856	-11.02184	13.96255	48.81267	0.2952	3.38749	191.49924	161.1229	73.54539	0.30191	 	4.38321E17	 	6.54912E-18	 	161.894	0.5668	 
310.0	1.0	0.0	7.77673	7.16698	-11.04154	13.94542	49.06287	0.2912	3.43405	191.96645	161.34965	73.73639	0.30171	 	6.8741E17	 	4.14048E-18	 	159.072	0.5644	 
305.0	1.0	0.0	7.77845	7.16539	-11.06119	13.9283	49.31437	0.28723	3.4815	192.42865	161.57173	73.92553	0.3015	 	1.08683E18	 	2.59637E-18	 	156.262	0.562	 
300.0	1.0	0.0	7.78016	7.16381	-11.0808	13.91118	49.56716	0.2833	3.52988	192.88583	161.78915	74.11279	0.3013	 	1.73266E18	 	1.61451E-18	 	153.463	0.5598	 
295.0	1.0	0.0	7.78187	7.16224	-11.10036	13.89406	49.82122	0.27939	3.57919	193.33796	162.00188	74.29817	0.30109	 	2.78591E18	 	9.95366E-19	 	150.677	0.5572	 
290.0	1.0	0.0	7.78358	7.16066	-11.11988	13.87694	50.07654	0.27552	3.62948	193.78503	162.20995	74.48167	0.30089	 	4.51872E18	 	6.08268E-19	 	147.902	0.555	 
285.0	1.0	0.0	7.78529	7.1591	-11.13935	13.85982	50.3331	0.27168	3.68075	194.22701	162.41333	74.66327	0.30069	 	7.39534E18	 	3.68366E-19	 	145.139	0.5526	 
280.0	1.0	0.0	7.78699	7.15753	-11.15878	13.84271	50.59089	0.26788	3.73305	194.66389	162.61205	74.84296	0.30048	 	1.22151E19	 	2.21021E-19	 	142.387	0.5504	 
275.0	1.0	0.0	7.78869	7.15597	-11.17816	13.8256	50.84989	0.2641	3.78638	195.09566	162.80608	75.02075	0.30028	 	2.03673E19	 	1.31357E-19	 	139.646	0.5482	 
270.0	1.0	0.0	7.79039	7.15441	-11.1975	13.80849	51.11009	0.26036	3.84079	195.5223	162.99545	75.19661	0.30007	 	3.42909E19	 	7.73085E-20	 	136.917	0.5458	 
265.0	1.0	0.0	7.79208	7.15286	-11.21679	13.79138	51.37147	0.25665	3.8963	195.9438	163.18015	75.37056	0.29987	 	5.83107E19	 	4.50445E-20	 	134.199	0.5436	 
260.0	1.0	0.0	7.79377	7.15131	-11.23604	13.77427	51.63401	0.25298	3.95294	196.36015	163.36019	75.54258	0.29967	 	1.00174E20	 	2.59764E-20	 	131.492	0.5414	 
255.0	1.0	0.0	7.79545	7.14976	-11.25524	13.75717	51.8977	0.24933	4.01074	196.77134	163.53558	75.71266	0.29946	 	1.73911E20	 	1.48223E-20	 	128.796	0.5392	 
250.0	1.0	0.0	7.79714	7.14822	-11.27439	13.74007	52.16252	0.24572	4.06974	197.17736	163.70632	75.88081	0.29926	 	3.052E20	 	8.3662E-21	 	126.11	0.5372	 
245.0	1.0	0.0	7.79882	7.14668	-11.29351	13.72297	52.42846	0.24213	4.12996	197.5782	163.87242	76.04702	0.29905	 	5.4157899999999997E20	 	4.66961E-21	 	123.436	0.5348	 
240.0	1.0	0.0	7.80049	7.14514	-11.31257	13.70587	52.6955	0.23858	4.19144	197.97386	164.03389	76.21129	0.29885	 	9.720629999999999E20	 	2.57654E-21	 	120.772	0.5328	 
235.0	1.0	0.0	7.80217	7.14361	-11.33159	13.68877	52.96362	0.23506	4.25422	198.36434	164.19074	76.37362	0.29864	 	1.76532E21	 	1.40493E-21	 	118.119	0.5306	 
230.0	1.0	0.0	7.80384	7.14208	-11.35057	13.67168	53.2328	0.23157	4.31833	198.74964	164.343	76.534	0.29844	 	3.24488E21	 	7.56807E-22	 	115.476	0.5286	 
225.0	1.0	0.0	7.8055	7.14055	-11.3695	13.65459	53.50304	0.22811	4.38382	199.12976	164.49067	76.69244	0.29824	 	6.0391E21	 	4.02601E-22	 	112.844	0.5264	 
220.0	1.0	0.0	7.80717	7.13903	-11.38838	13.6375	53.77431	0.22468	4.45071	199.50471	164.63377	76.84893	0.29803	 	1.1384199999999999E22	 	2.11428E-22	 	110.222	0.5244	 
215.0	1.0	0.0	7.80883	7.13751	-11.40722	13.62041	54.0466	0.22128	4.51907	199.87448	164.77231	77.00348	0.29783	 	2.1744999999999998E22	 	1.09567E-22	 	107.61	0.5224	 
210.0	1.0	0.0	7.81048	7.136	-11.42601	13.60333	54.31988	0.21792	4.58892	200.23909	164.90633	77.15609	0.29762	 	4.2103E22	 	5.60087E-23	 	105.009	0.5202	 
205.0	1.0	0.0	7.81214	7.13449	-11.44476	13.58624	54.59415	0.21458	4.66032	200.59854	165.03584	77.30676	0.29742	 	8.266959999999999E22	 	2.82296E-23	 	102.417	0.5184	 
200.0	1.0	0.0	7.81379	7.13298	-11.46347	13.56916	54.86938	0.21127	4.73331	200.95287	165.16087	77.4555	0.29722	 	1.64682E23	 	1.4023E-23	 	99.836	0.5162	 
195.0	1.0	0.0	7.81544	7.13148	-11.48213	13.55208	55.14555	0.20799	4.80794	201.30207	165.28145	77.60231	0.29701	 	3.3297299999999996E23	 	6.8622E-24	 	97.265	0.5142	 
190.0	1.0	0.0	7.81708	7.12998	-11.50074	13.535	55.42266	0.20474	4.88427	201.64616	165.3976	77.7472	0.29681	 	6.8366E23	 	3.3065E-24	 	94.704	0.5122	 
185.0	1.0	0.0	7.81872	7.12848	-11.51931	13.51792	55.70068	0.20152	4.96234	201.98518	165.50935	77.89017	0.2966	 	1.42612E24	 	1.56797E-24	 	92.153	0.5102	 
180.0	1.0	0.0	7.82036	7.12699	-11.53783	13.50085	55.97959	0.19833	5.04222	202.31915	165.61675	78.03125	0.2964	 	3.02397E24	 	7.31393E-25	 	89.611	0.5084	 
175.0	1.0	0.0	7.82199	7.1255	-11.55631	13.48378	56.25938	0.19516	5.12396	202.64809	165.71982	78.17043	0.29619	 	6.5214E24	 	3.35405E-25	 	87.08	0.5062	 
170.0	1.0	0.0	7.82362	7.12402	-11.57474	13.46671	56.54003	0.19203	5.20762	202.97204	165.81861	78.30773	0.29599	 	1.4311600000000002E25	 	1.51129E-25	 	84.558	0.5044	 
165.0	1.0	0.0	7.82525	7.12254	-11.59313	13.44964	56.82152	0.18892	5.29327	203.29104	165.91316	78.44316	0.29579	 	3.1980100000000004E25	 	6.68698E-26	 	82.046	0.5024	 
160.0	1.0	0.0	7.82687	7.12106	-11.61147	13.43257	57.10383	0.18584	5.38097	203.60513	166.00352	78.57673	0.29558	 	7.2808E25	 	2.90366E-26	 	79.544	0.5004	 
155.0	1.0	0.0	7.82849	7.11958	-11.62977	13.41551	57.38694	0.18279	5.4708	203.91435	166.08974	78.70847	0.29538	 	1.68993E26	 	1.23655E-26	 	77.051	0.4986	 
150.0	1.0	0.0	7.83011	7.11811	-11.64802	13.39845	57.67084	0.17976	5.56283	204.21875	166.17186	78.8384	0.29517	 	4.00169E26	 	5.16104E-27	 	74.568	0.4966	 
145.0	1.0	0.0	7.83172	7.11665	-11.66623	13.38139	57.95551	0.17677	5.65713	204.51839	166.24995	78.96652	0.29497	 	9.674090000000002E26	 	2.10964E-27	 	72.095	0.4946	 
140.0	1.0	0.0	7.83334	7.11518	-11.6844	13.36433	58.24093	0.1738	5.7538	204.81333	166.32407	79.09287	0.29476	 	2.3894199999999998E27	 	8.43921E-28	 	69.631	0.4928	 
135.0	1.0	0.0	7.83494	7.11372	-11.70251	13.34727	58.52707	0.17086	5.8529	205.10363	166.39429	79.21747	0.29456	 	6.034349999999999E27	 	3.30123E-28	 	67.177	0.4908	 
130.0	1.0	0.0	7.83655	7.11227	-11.72059	13.33022	58.81393	0.16794	5.95453	205.38937	166.46066	79.34034	0.29436	 	1.55948E28	 	1.26175E-28	 	64.732	0.489	 
125.0	1.0	0.0	7.83815	7.11082	-11.73861	13.31317	59.10148	0.16505	6.05879	205.67062	166.52328	79.46152	0.29415	 	4.12776E28	 	4.70781E-29	 	62.297	0.487	 
120.0	1.0	0.0	7.83974	7.10937	-11.7566	13.29612	59.38971	0.16219	6.16576	205.94748	166.58221	79.58104	0.29395	 	1.1200300000000002E29	 	1.71323E-29	 	59.871	0.4852	 
115.0	1.0	0.0	7.84134	7.10792	-11.77453	13.27907	59.67859	0.15935	6.27557	206.22002	166.63754	79.69893	0.29374	 	3.1184400000000002E29	 	6.07503E-30	 	57.455	0.4832	 
110.0	1.0	0.0	7.84293	7.10648	-11.79243	13.26202	59.96811	0.15654	6.3883	206.48835	166.68936	79.81523	0.29354	 	8.91817E29	 	2.09691E-30	 	55.049	0.4812	 
105.0	1.0	0.0	7.84452	7.10504	-11.81027	13.24498	60.25824	0.15375	6.50409	206.75257	166.73778	79.92998	0.29334	 	2.62242E30	 	7.03799E-31	 	52.652	0.4794	 
100.0	1.0	0.0	7.8461	7.10361	-11.82808	13.22793	60.54898	0.15099	6.62304	207.01281	166.78288	80.04322	0.29313	 	7.93781E30	 	2.2944E-31	 	50.264	0.4776	 
95.0	1.0	0.0	7.84768	7.10218	-11.84583	13.21089	60.84029	0.14825	6.74529	207.26919	166.82479	80.15501	0.29293	 	2.47618E31	 	7.25654E-32	 	47.886	0.4756	 
90.0	1.0	0.0	7.84926	7.10075	-11.86355	13.19386	61.13216	0.14554	6.87096	207.52183	166.86362	80.26538	0.29272	 	7.970479999999999E31	 	2.22376E-32	 	45.518	0.4736	 
85.0	1.0	0.0	7.85083	7.09933	-11.88121	13.17682	61.42457	0.14285	7.00021	207.7709	166.8995	80.37441	0.29252	 	2.6508E32	 	6.5944E-33	 	43.16	0.4716	 
80.0	1.0	0.0	7.8524	7.09791	-11.89884	13.15978	61.7175	0.14019	7.13318	208.01653	166.93256	80.48214	0.29231	 	9.121359999999999E32	 	1.88967E-33	 	40.811	0.4698	 
75.0	1.0	0.0	7.85397	7.09649	-11.91642	13.14275	62.01094	0.13755	7.27002	208.25891	166.96294	80.58865	0.29211	 	3.2521400000000003E33	 	5.22497E-34	 	38.472	0.4678	 
70.0	1.0	0.0	7.85553	7.09508	-11.93395	13.12572	62.30485	0.13494	7.41091	208.49821	166.9908	80.694	0.29191	 	1.2033100000000001E34	 	1.39185E-34	 	36.143	0.4658	 
65.0	1.0	0.0	7.85709	7.09367	-11.95144	13.10869	62.59923	0.13234	7.55603	208.73463	167.0163	80.79827	0.2917	 	4.628090000000001E34	 	3.56611E-35	 	33.824	0.4638	 
60.0	1.0	0.0	7.85865	7.09226	-11.96888	13.09167	62.89404	0.12978	7.70555	208.96838	167.03961	80.90154	0.2915	 	1.8535E35	 	8.77273E-36	 	31.515	0.4618	 
55.0	1.0	0.0	7.8602	7.09086	-11.98628	13.07464	63.18928	0.12723	7.85968	209.19968	167.06093	81.00389	0.29129	 	7.743769999999999E35	 	2.06827E-36	 	29.216	0.4598	 
50.0	1.0	0.0	7.86175	7.08946	-12.00363	13.05762	63.48493	0.12471	8.01863	209.42877	167.08045	81.10542	0.29109	 	3.3816999999999995E36	 	4.66397E-37	 	26.927	0.4578	 
45.0	1.0	0.0	7.8633	7.08807	-12.02094	13.0406	63.78095	0.12221	8.18263	209.65593	167.09838	81.20623	0.29089	 	1.5468399999999998E37	 	1.00386E-37	 	24.648	0.4558	 
40.0	1.0	0.0	7.86484	7.08668	-12.0382	13.02358	64.07734	0.11973	8.35191	209.88143	167.11497	81.30643	0.29068	 	7.427559999999999E37	 	2.05775E-38	 	22.38	0.4536	 
35.0	1.0	0.0	7.86638	7.08529	-12.05542	13.00656	64.37406	0.11728	8.52673	210.10558	167.13044	81.40614	0.29048	 	3.7528699999999996E38	 	4.00761E-39	 	20.123	0.4514	 
30.0	1.0	0.0	7.86792	7.08391	-12.07259	12.98955	64.67111	0.11485	8.70736	210.3287	167.14507	81.50548	0.29027	 	2.00028E39	 	7.39695E-40	 	17.876	0.4494	 
25.0	1.0	0.0	7.86945	7.08253	-12.08972	 	64.96847	0.11243	8.89409	210.55114	167.15914	81.60459	0.29007	 	1.12771E40	 	1.2904E-40	 	15.64	 	 
